##TITLE=No Description
##DATA TYPE=INFRARED SPECTRUM
##XUNITS=1/CM
##YUNITS=%T
400.628357  	159.175471 
402.059173  	121.147644 
403.489988  	452.875260 
404.920804  	141.206474 
406.351619  	129.631957 
407.782435  	132.351491 
409.213250  	195.444749 
410.644066  	91.546481 
412.074881  	152.854245 
413.505697  	220.533398 
414.936513  	277.762946 
416.367328  	367.578412 
417.798144  	84.976227 
419.228959  	113.539680 
420.659775  	93.795304 
422.090590  	316.387690 
423.521406  	293.000314 
424.952221  	172.789908 
426.383037  	193.958096 
427.813853  	112.024664 
429.244668  	43.176993 
430.675484  	53.491538 
432.106299  	30.446703 
433.537115  	265.628095 
434.967930  	56.696257 
436.398746  	19.607410 
437.829562  	66.630276 
439.260377  	161.039576 
440.691193  	183.682332 
442.122008  	487.056589 
443.552824  	81.085292 
444.983639  	704.283069 
446.414455  	11.230926 
447.845270  	126.551662 
449.276086  	85.528573 
450.706902  	117.082143 
452.137717  	114.858266 
453.568533  	74.416580 
454.999348  	18.942767 
456.430164  	63.042048 
457.860979  	282.840370 
459.291795  	174.818710 
460.722611  	189.897398 
462.153426  	98.070273 
463.584242  	59.585299 
465.015057  	10.630437 
466.445873  	65.923559 
467.876688  	214.183399 
469.307504  	251.014240 
470.738319  	223.626688 
472.169135  	180.395671 
473.599951  	273.690024 
475.030766  	111.065251 
476.461582  	142.913437 
477.892397  	109.818950 
479.323213  	33.052480 
480.754028  	99.960179 
482.184844  	35.325773 
483.615659  	93.516306 
485.046475  	73.967858 
486.477291  	31.707005 
487.908106  	144.299713 
489.338922  	85.982443 
490.769737  	25.431191 
492.200553  	71.410093 
493.631368  	55.701526 
495.062184  	63.676683 
496.493000  	60.497722 
497.923815  	76.777201 
499.354631  	63.228759 
500.785446  	37.744076 
502.216262  	44.672413 
503.647077  	64.670027 
505.077893  	431.754326 
506.508708  	55.717779 
507.939524  	44.860915 
509.370340  	22.331309 
510.801155  	79.239952 
512.231971  	66.606469 
513.662786  	46.997679 
515.093602  	17.891903 
516.524417  	90.754061 
517.955233  	107.583283 
519.386048  	99.558841 
520.816864  	62.105553 
522.247680  	61.056287 
523.678495  	82.669954 
525.109311  	152.135596 
526.540126  	6508.760220 
527.970942  	1483.304927 
529.401757  	182.684078 
530.832573  	312.772512 
532.263389  	157.252335 
533.694204  	402.115786 
535.125020  	124.636270 
536.555835  	146.827272 
537.986651  	210.907310 
539.417466  	456.343585 
540.848282  	62.717281 
542.279097  	69.142830 
543.709913  	124.010008 
545.140729  	76.064805 
546.571544  	288.308505 
548.002360  	161.965484 
549.433175  	151.227710 
550.863991  	132.639112 
552.294806  	130.629730 
553.725622  	195.694835 
555.156438  	167.623118 
556.587253  	3.899598 
558.018069  	29.545915 
559.448884  	99.949969 
560.879700  	147.720137 
562.310515  	288.864810 
563.741331  	74.370152 
565.172146  	573.975425 
566.602962  	153.208014 
568.033778  	118.332675 
569.464593  	336.063422 
570.895409  	148.700133 
572.326224  	136.129855 
573.757040  	198.736899 
575.187855  	151.586749 
576.618671  	140.332305 
578.049486  	123.993572 
579.480302  	93.199915 
580.911118  	82.508613 
582.341933  	31.346515 
583.772749  	51.484900 
585.203564  	35.732155 
586.634380  	104.468715 
588.065195  	266.373528 
589.496011  	184.569798 
590.926827  	92.076063 
592.357642  	581.678189 
593.788458  	158.604625 
595.219273  	11.519590 
596.650089  	65.005920 
598.080904  	82.743455 
599.511720  	185.056799 
600.942535  	320.896082 
602.373351  	196.908775 
603.804167  	190.898483 
605.234982  	230.182454 
606.665798  	93.637562 
608.096613  	68.820105 
609.527429  	148.141767 
610.958244  	37.703356 
612.389060  	85.365514 
613.819875  	47.076675 
615.250691  	203.503080 
616.681507  	76.450441 
618.112322  	40.264103 
619.543138  	50.240082 
620.973953  	72.119653 
622.404769  	287.062095 
623.835584  	380.405682 
625.266400  	59.803345 
626.697216  	17.700667 
628.128031  	262.257325 
629.558847  	98.474305 
630.989662  	62.967094 
632.420478  	100.849885 
633.851293  	109.627517 
635.282109  	722.924504 
636.712924  	34.824726 
638.143740  	193.275651 
639.574556  	76.653883 
641.005371  	51.019177 
642.436187  	191.476190 
643.867002  	108.716393 
645.297818  	219.045550 
646.728633  	128.880468 
648.159449  	103.585080 
649.590265  	92.441290 
651.021080  	175.160152 
652.451896  	70.390059 
653.882711  	25.854193 
655.313527  	97.822533 
656.744342  	103.682776 
658.175158  	150.725605 
659.605973  	134.930756 
661.036789  	60.686500 
662.467605  	108.267841 
663.898420  	16.146599 
665.329236  	68.095317 
666.760051  	63.694634 
668.190867  	68.854385 
669.621682  	33.883264 
671.052498  	65.711806 
672.483313  	103.737727 
673.914129  	160.247038 
675.344945  	151.015744 
676.775760  	93.262855 
678.206576  	169.824854 
679.637391  	68.436621 
681.068207  	89.696276 
682.499022  	55.239063 
683.929838  	69.911687 
685.360654  	35.815941 
686.791469  	28.980170 
688.222285  	98.703340 
689.653100  	105.883919 
691.083916  	29.078050 
692.514731  	106.893068 
693.945547  	93.517002 
695.376362  	26.202643 
696.807178  	130.751082 
698.237994  	35.068765 
699.668809  	43.255696 
701.099625  	110.106354 
702.530440  	109.377951 
703.961256  	166.512742 
705.392071  	96.756353 
706.822887  	90.469516 
708.253702  	27.932703 
709.684518  	51.055108 
711.115334  	26.598479 
712.546149  	77.797916 
713.976965  	112.252944 
715.407780  	151.484137 
716.838596  	122.765566 
718.269411  	75.966007 
719.700227  	69.096401 
721.131043  	48.550733 
722.561858  	26.295360 
723.992674  	60.698541 
725.423489  	107.845259 
726.854305  	38.230989 
728.285120  	79.479146 
729.715936  	74.809329 
731.146751  	114.292139 
732.577567  	52.528290 
734.008383  	54.831668 
735.439198  	142.996879 
736.870014  	127.488519 
738.300829  	99.990169 
739.731645  	75.546153 
741.162460  	68.662013 
742.593276  	58.428755 
744.024092  	108.455768 
745.454907  	75.147455 
746.885723  	40.380478 
748.316538  	186.459963 
749.747354  	74.965627 
751.178169  	162.082489 
752.608985  	193.232240 
754.039800  	220.447776 
755.470616  	83.962292 
756.901432  	105.645912 
758.332247  	23.373673 
759.763063  	50.331869 
761.193878  	31.438345 
762.624694  	83.775418 
764.055509  	108.240664 
765.486325  	41.962470 
766.917140  	17.260417 
768.347956  	90.226493 
769.778772  	117.661427 
771.209587  	55.931954 
772.640403  	51.265518 
774.071218  	87.551138 
775.502034  	114.502821 
776.932849  	129.476384 
778.363665  	38.922793 
779.794481  	81.153665 
781.225296  	44.642007 
782.656112  	48.500415 
784.086927  	18.414239 
785.517743  	71.340714 
786.948558  	23.871112 
788.379374  	64.871901 
789.810189  	29.270971 
791.241005  	44.430686 
792.671821  	38.300099 
794.102636  	41.892994 
795.533452  	47.102281 
796.964267  	92.366907 
798.395083  	55.854071 
799.825898  	79.189568 
801.256714  	69.948407 
802.687529  	89.235421 
804.118345  	117.652464 
805.549161  	107.508314 
806.979976  	84.394884 
808.410792  	60.065900 
809.841607  	74.583999 
811.272423  	67.965085 
812.703238  	40.815843 
814.134054  	83.689978 
815.564870  	38.937278 
816.995685  	49.234055 
818.426501  	52.024501 
819.857316  	79.269113 
821.288132  	41.371783 
822.718947  	59.986995 
824.149763  	47.854925 
825.580578  	96.932656 
827.011394  	23.350601 
828.442210  	67.975137 
829.873025  	111.470650 
831.303841  	54.405366 
832.734656  	67.964472 
834.165472  	74.749553 
835.596287  	78.555313 
837.027103  	92.994947 
838.457918  	97.617128 
839.888734  	92.696857 
841.319550  	92.268550 
842.750365  	89.695641 
844.181181  	88.709991 
845.611996  	89.993615 
847.042812  	86.473767 
848.473627  	86.323289 
849.904443  	89.115100 
851.335259  	89.543046 
852.766074  	90.998843 
854.196890  	91.219406 
855.627705  	90.706458 
857.058521  	92.371043 
858.489336  	92.403846 
859.920152  	92.416841 
861.350967  	92.882164 
862.781783  	92.087439 
864.212599  	93.249078 
865.643414  	93.777143 
867.074230  	92.091553 
868.505045  	91.975221 
869.935861  	92.132331 
871.366676  	92.226469 
872.797492  	92.684636 
874.228308  	91.892614 
875.659123  	91.998084 
877.089939  	92.755357 
878.520754  	92.547088 
879.951570  	92.879121 
881.382385  	92.882251 
882.813201  	92.552641 
884.244016  	92.641475 
885.674832  	92.110998 
887.105648  	91.962367 
888.536463  	92.071604 
889.967279  	91.801955 
891.398094  	92.086866 
892.828910  	92.022415 
894.259725  	91.711533 
895.690541  	92.053659 
897.121356  	91.891384 
898.552172  	91.757535 
899.982988  	92.125937 
901.413803  	91.902658 
902.844619  	91.747999 
904.275434  	91.876666 
905.706250  	91.837093 
907.137065  	91.992623 
908.567881  	92.024401 
909.998697  	92.000556 
911.429512  	92.158012 
912.860328  	92.178084 
914.291143  	92.353383 
915.721959  	92.446973 
917.152774  	92.257673 
918.583590  	92.386380 
920.014405  	92.634808 
921.445221  	92.923596 
922.876037  	93.210648 
924.306852  	93.119519 
925.737668  	93.202867 
927.168483  	93.326751 
928.599299  	93.147746 
930.030114  	93.124239 
931.460930  	92.869076 
932.891745  	92.654921 
934.322561  	92.791768 
935.753377  	92.525807 
937.184192  	92.327343 
938.615008  	92.367394 
940.045823  	92.111044 
941.476639  	92.127452 
942.907454  	92.277184 
944.338270  	92.223250 
945.769086  	92.396361 
947.199901  	92.499667 
948.630717  	92.632468 
950.061532  	92.820838 
951.492348  	92.625754 
952.923163  	92.803392 
954.353979  	92.862504 
955.784794  	92.182920 
957.215610  	91.877075 
958.646426  	91.695523 
960.077241  	91.269692 
961.508057  	90.905327 
962.938872  	90.416946 
964.369688  	90.243973 
965.800503  	90.232573 
967.231319  	89.832765 
968.662135  	89.646825 
970.092950  	89.609063 
971.523766  	89.457624 
972.954581  	89.524982 
974.385397  	89.486594 
975.816212  	89.642986 
977.247028  	90.111323 
978.677843  	90.334419 
980.108659  	91.436932 
981.539475  	92.926020 
982.970290  	93.778834 
984.401106  	96.110514 
985.831921  	98.694577 
987.262737  	102.238031 
988.693552  	108.673934 
990.124368  	111.523530 
991.555183  	121.676644 
992.985999  	129.963597 
994.416815  	129.198572 
995.847630  	145.260304 
997.278446  	142.866541 
998.709261  	142.631071 
1000.140077  	151.515007 
1001.570892  	135.388538 
1003.001708  	139.912902 
1004.432524  	143.524624 
1005.863339  	134.143955 
1007.294155  	149.869229 
1008.724970  	143.957806 
1010.155786  	135.752793 
1011.586601  	151.208540 
1013.017417  	143.412154 
1014.448232  	150.157591 
1015.879048  	155.578244 
1017.309864  	138.320789 
1018.740679  	150.986013 
1020.171495  	145.682045 
1021.602310  	138.176348 
1023.033126  	152.106763 
1024.463941  	137.257668 
1025.894757  	133.966398 
1027.325572  	144.539540 
1028.756388  	136.869338 
1030.187204  	149.177861 
1031.618019  	149.081161 
1033.048835  	138.721550 
1034.479650  	154.053102 
1035.910466  	143.683225 
1037.341281  	140.894013 
1038.772097  	152.002022 
1040.202913  	137.392917 
1041.633728  	142.546200 
1043.064544  	142.789293 
1044.495359  	130.708502 
1045.926175  	145.826463 
1047.356990  	143.032900 
1048.787806  	137.488740 
1050.218621  	147.389425 
1051.649437  	132.431802 
1053.080253  	139.232832 
1054.511068  	151.202957 
1055.941884  	138.188647 
1057.372699  	150.444709 
1058.803515  	142.962163 
1060.234330  	134.233290 
1061.665146  	149.582721 
1063.095962  	136.907006 
1064.526777  	138.141208 
1065.957593  	145.228578 
1067.388408  	132.129232 
1068.819224  	142.862967 
1070.250039  	141.325064 
1071.680855  	132.530031 
1073.111670  	147.810479 
1074.542486  	138.955846 
1075.973302  	136.690614 
1077.404117  	141.072097 
1078.834933  	125.131399 
1080.265748  	120.005815 
1081.696564  	113.447507 
1083.127379  	107.708122 
1084.558195  	106.016575 
1085.989010  	103.172431 
1087.419826  	101.049947 
1088.850642  	100.384007 
1090.281457  	99.378981 
1091.712273  	98.787489 
1093.143088  	98.448684 
1094.573904  	97.922487 
1096.004719  	97.725548 
1097.435535  	97.421397 
1098.866351  	97.074761 
1100.297166  	96.934736 
1101.727982  	96.656282 
1103.158797  	96.559016 
1104.589613  	96.540894 
1106.020428  	96.325289 
1107.451244  	96.301713 
1108.882059  	96.251604 
1110.312875  	96.104397 
1111.743691  	96.139899 
1113.174506  	96.065600 
1114.605322  	95.948589 
1116.036137  	95.887334 
1117.466953  	95.657334 
1118.897768  	95.421630 
1120.328584  	95.166322 
1121.759399  	94.834618 
1123.190215  	94.607812 
1124.621031  	94.430314 
1126.051846  	94.374204 
1127.482662  	94.531511 
1128.913477  	94.697164 
1130.344293  	94.838185 
1131.775108  	94.926402 
1133.205924  	94.916551 
1134.636740  	94.935278 
1136.067555  	94.931073 
1137.498371  	94.886644 
1138.929186  	94.839464 
1140.360002  	94.693020 
1141.790817  	94.522242 
1143.221633  	94.364160 
1144.652448  	94.157137 
1146.083264  	93.909262 
1147.514080  	93.441130 
1148.944895  	92.592707 
1150.375711  	91.327908 
1151.806526  	89.833498 
1153.237342  	88.969142 
1154.668157  	89.418579 
1156.098973  	90.554502 
1157.529789  	91.375712 
1158.960604  	91.662511 
1160.391420  	91.673113 
1161.822235  	91.669462 
1163.253051  	91.731281 
1164.683866  	91.863966 
1166.114682  	92.068368 
1167.545497  	92.291834 
1168.976313  	92.526822 
1170.407129  	92.745513 
1171.837944  	92.905244 
1173.268760  	93.048742 
1174.699575  	93.179927 
1176.130391  	93.314494 
1177.561206  	93.463543 
1178.992022  	93.579782 
1180.422837  	93.701205 
1181.853653  	93.819581 
1183.284469  	93.900854 
1184.715284  	93.998755 
1186.146100  	94.074112 
1187.576915  	94.140382 
1189.007731  	94.254026 
1190.438546  	94.326096 
1191.869362  	94.377605 
1193.300178  	94.451118 
1194.730993  	94.486634 
1196.161809  	94.525849 
1197.592624  	94.562766 
1199.023440  	94.580975 
1200.454255  	94.625703 
1201.885071  	94.628279 
1203.315886  	94.614943 
1204.746702  	94.643837 
1206.177518  	94.640952 
1207.608333  	94.647508 
1209.039149  	94.676577 
1210.469964  	94.666737 
1211.900780  	94.679074 
1213.331595  	94.708647 
1214.762411  	94.715670 
1216.193226  	94.699405 
1217.624042  	94.622007 
1219.054858  	94.522968 
1220.485673  	94.401264 
1221.916489  	94.235258 
1223.347304  	94.077331 
1224.778120  	93.910041 
1226.208935  	93.786623 
1227.639751  	93.749681 
1229.070567  	93.698904 
1230.501382  	93.662787 
1231.932198  	93.656667 
1233.363013  	93.600121 
1234.793829  	93.533087 
1236.224644  	93.426309 
1237.655460  	93.229232 
1239.086275  	93.003285 
1240.517091  	92.721562 
1241.947907  	92.358927 
1243.378722  	91.998780 
1244.809538  	91.786102 
1246.240353  	91.900089 
1247.671169  	92.357363 
1249.101984  	92.960617 
1250.532800  	93.530040 
1251.963616  	93.935146 
1253.394431  	94.171545 
1254.825247  	94.320278 
1256.256062  	94.407078 
1257.686878  	94.454493 
1259.117693  	94.420392 
1260.548509  	94.352526 
1261.979324  	94.345523 
1263.410140  	94.218152 
1264.840956  	93.894141 
1266.271771  	93.510725 
1267.702587  	93.049500 
1269.133402  	92.515798 
1270.564218  	92.051043 
1271.995033  	91.841319 
1273.425849  	92.013357 
1274.856664  	92.435796 
1276.287480  	92.934094 
1277.718296  	93.433709 
1279.149111  	93.782830 
1280.579927  	93.975135 
1282.010742  	94.070119 
1283.441558  	94.014115 
1284.872373  	93.837516 
1286.303189  	93.522242 
1287.734005  	93.122805 
1289.164820  	92.835817 
1290.595636  	92.550259 
1292.026451  	92.175085 
1293.457267  	91.866498 
1294.888082  	91.585489 
1296.318898  	91.407795 
1297.749713  	91.525754 
1299.180529  	91.782908 
1300.611345  	92.110812 
1302.042160  	92.492974 
1303.472976  	92.797205 
1304.903791  	93.041859 
1306.334607  	93.111780 
1307.765422  	92.956995 
1309.196238  	92.708061 
1310.627053  	92.160029 
1312.057869  	91.278183 
1313.488685  	90.639060 
1314.919500  	90.542660 
1316.350316  	90.847299 
1317.781131  	91.479611 
1319.211947  	92.400182 
1320.642762  	93.444773 
1322.073578  	94.187654 
1323.504394  	94.566428 
1324.935209  	94.827864 
1326.366025  	95.008172 
1327.796840  	95.145322 
1329.227656  	95.270291 
1330.658471  	95.356879 
1332.089287  	95.489117 
1333.520102  	95.544556 
1334.950918  	95.371816 
1336.381734  	95.020322 
1337.812549  	94.405108 
1339.243365  	93.937411 
1340.674180  	94.553680 
1342.104996  	95.492673 
1343.535811  	95.798405 
1344.966627  	95.772132 
1346.397443  	95.841732 
1347.828258  	95.829340 
1349.259074  	95.761082 
1350.689889  	95.870992 
1352.120705  	95.931236 
1353.551520  	95.789177 
1354.982336  	95.740988 
1356.413151  	95.844922 
1357.843967  	95.889342 
1359.274783  	95.777690 
1360.705598  	95.273864 
1362.136414  	94.610664 
1363.567229  	95.014518 
1364.998045  	96.003880 
1366.428860  	96.274614 
1367.859676  	95.942556 
1369.290491  	95.933923 
1370.721307  	96.221989 
1372.152123  	95.930894 
1373.582938  	95.149075 
1375.013754  	95.309033 
1376.444569  	96.005014 
1377.875385  	96.096443 
1379.306200  	96.099367 
1380.737016  	96.338133 
1382.167832  	96.393882 
1383.598647  	96.388923 
1385.029463  	96.056527 
1386.460278  	95.196966 
1387.891094  	95.200089 
1389.321909  	95.870998 
1390.752725  	96.052888 
1392.183540  	95.820252 
1393.614356  	95.013459 
1395.045172  	94.263297 
1396.475987  	94.627599 
1397.906803  	94.707969 
1399.337618  	94.660042 
1400.768434  	95.514043 
1402.199249  	95.853320 
1403.630065  	95.201261 
1405.060880  	94.839761 
1406.491696  	95.183997 
1407.922512  	95.317075 
1409.353327  	94.984994 
1410.784143  	94.436814 
1412.214958  	94.091418 
1413.645774  	93.648580 
1415.076589  	92.437841 
1416.507405  	90.631206 
1417.938221  	88.376909 
1419.369036  	86.278127 
1420.799852  	85.979285 
1422.230667  	85.708316 
1423.661483  	84.978821 
1425.092298  	85.529183 
1426.523114  	86.606345 
1427.953929  	87.109298 
1429.384745  	87.767939 
1430.815561  	88.764340 
1432.246376  	89.463502 
1433.677192  	89.714638 
1435.108007  	89.235779 
1436.538823  	87.969647 
1437.969638  	87.872409 
1439.400454  	87.675401 
1440.831270  	86.148110 
1442.262085  	84.064317 
1443.692901  	82.057382 
1445.123716  	80.389178 
1446.554532  	79.551294 
1447.985347  	80.206313 
1449.416163  	82.247690 
1450.846978  	84.038852 
1452.277794  	85.260453 
1453.708610  	85.771716 
1455.139425  	85.188570 
1456.570241  	82.805556 
1458.001056  	81.636305 
1459.431872  	81.691919 
1460.862687  	81.043531 
1462.293503  	79.710937 
1463.724318  	77.932917 
1465.155134  	77.600601 
1466.585950  	78.818824 
1468.016765  	80.337662 
1469.447581  	81.891268 
1470.878396  	82.556380 
1472.309212  	84.040628 
1473.740027  	87.516750 
1475.170843  	89.717286 
1476.601659  	91.612474 
1478.032474  	93.318000 
1479.463290  	94.049930 
1480.894105  	94.107484 
1482.324921  	94.420714 
1483.755736  	94.881431 
1485.186552  	94.519230 
1486.617367  	93.631511 
1488.048183  	92.895019 
1489.478999  	92.181063 
1490.909814  	93.159093 
1492.340630  	94.840047 
1493.771445  	95.191754 
1495.202261  	94.337266 
1496.633076  	93.606429 
1498.063892  	93.957486 
1499.494707  	94.508146 
1500.925523  	94.888920 
1502.356339  	95.136315 
1503.787154  	94.945984 
1505.217970  	93.127056 
1506.648785  	89.069644 
