##TITLE=No Description
##DATA TYPE=INFRARED SPECTRUM
##XUNITS=1/CM
##YUNITS=%T
400.628357  	307.360114 
402.059173  	384.207477 
403.489988  	75.805599 
404.920804  	117.084244 
406.351619  	32.249774 
407.782435  	45.188667 
409.213250  	73.471734 
410.644066  	53.337372 
412.074881  	83.029458 
413.505697  	88.564336 
414.936513  	57.125241 
416.367328  	486.526282 
417.798144  	356.773888 
419.228959  	124.005315 
420.659775  	103.379005 
422.090590  	61.942221 
423.521406  	78.888300 
424.952221  	121.899858 
426.383037  	109.505648 
427.813853  	1741.743490 
429.244668  	66.086508 
430.675484  	196.939122 
432.106299  	519.883809 
433.537115  	90.916168 
434.967930  	33.860076 
436.398746  	54.222182 
437.829562  	26.579445 
439.260377  	141.092053 
440.691193  	80.222503 
442.122008  	66.059087 
443.552824  	260.192694 
444.983639  	660.021076 
446.414455  	132.400187 
447.845270  	57.119747 
449.276086  	86.246282 
450.706902  	141.504421 
452.137717  	208.341060 
453.568533  	42.971687 
454.999348  	111.425791 
456.430164  	59.848231 
457.860979  	55.066608 
459.291795  	171.642009 
460.722611  	73.262666 
462.153426  	95.092521 
463.584242  	109.287037 
465.015057  	168.413536 
466.445873  	396.962483 
467.876688  	62.795102 
469.307504  	64.526721 
470.738319  	136.277027 
472.169135  	9.376260 
473.599951  	26.950064 
475.030766  	259.207072 
476.461582  	65.079971 
477.892397  	100.988318 
479.323213  	63.345514 
480.754028  	26.025282 
482.184844  	147.679953 
483.615659  	33.255695 
485.046475  	20.284307 
486.477291  	81.071277 
487.908106  	53.950034 
489.338922  	148.076084 
490.769737  	842.021737 
492.200553  	273.590775 
493.631368  	61.687868 
495.062184  	113.273038 
496.493000  	31.354102 
497.923815  	58.965989 
499.354631  	23.712030 
500.785446  	127.008441 
502.216262  	45.815429 
503.647077  	42.721411 
505.077893  	133.189146 
506.508708  	391.973372 
507.939524  	258.469015 
509.370340  	157.309736 
510.801155  	51.695399 
512.231971  	37.173482 
513.662786  	678.400844 
515.093602  	69.452646 
516.524417  	26.273582 
517.955233  	24.419956 
519.386048  	47.312854 
520.816864  	192.959158 
522.247680  	109.628514 
523.678495  	109.364384 
525.109311  	89.302106 
526.540126  	15.120957 
527.970942  	158.650629 
529.401757  	48.050305 
530.832573  	18.890129 
532.263389  	78.259719 
533.694204  	92.668490 
535.125020  	208.752686 
536.555835  	61.570598 
537.986651  	52.659464 
539.417466  	193.335514 
540.848282  	316.112724 
542.279097  	54.380051 
543.709913  	172.349919 
545.140729  	79.965224 
546.571544  	42.619761 
548.002360  	170.714055 
549.433175  	9.610278 
550.863991  	51.471726 
552.294806  	116.307075 
553.725622  	61.172089 
555.156438  	96.395794 
556.587253  	66.841890 
558.018069  	150.972669 
559.448884  	115.779671 
560.879700  	72.707387 
562.310515  	73.709363 
563.741331  	66.290912 
565.172146  	12.554246 
566.602962  	76.536687 
568.033778  	240.159578 
569.464593  	88.768719 
570.895409  	179.218308 
572.326224  	33.772930 
573.757040  	18.701595 
575.187855  	73.718838 
576.618671  	77.090952 
578.049486  	134.400893 
579.480302  	129.190360 
580.911118  	23.666051 
582.341933  	105.896390 
583.772749  	71.150832 
585.203564  	56.989610 
586.634380  	225.025742 
588.065195  	76.687352 
589.496011  	78.316811 
590.926827  	180.594722 
592.357642  	67.654126 
593.788458  	180.506343 
595.219273  	132.981203 
596.650089  	80.132797 
598.080904  	83.465982 
599.511720  	58.671687 
600.942535  	127.349091 
602.373351  	98.428116 
603.804167  	52.231901 
605.234982  	87.586449 
606.665798  	54.054336 
608.096613  	12.209337 
609.527429  	147.838412 
610.958244  	69.768951 
612.389060  	92.842585 
613.819875  	141.113717 
615.250691  	77.223786 
616.681507  	177.179589 
618.112322  	153.434503 
619.543138  	31.991964 
620.973953  	178.503987 
622.404769  	67.621422 
623.835584  	77.764397 
625.266400  	189.948107 
626.697216  	85.196353 
628.128031  	60.432189 
629.558847  	106.970723 
630.989662  	160.561204 
632.420478  	385.176696 
633.851293  	175.612166 
635.282109  	72.184214 
636.712924  	155.645593 
638.143740  	102.215915 
639.574556  	276.865281 
641.005371  	229.267257 
642.436187  	23.771688 
643.867002  	60.461579 
645.297818  	45.387816 
646.728633  	87.461247 
648.159449  	140.341415 
649.590265  	42.221599 
651.021080  	35.586367 
652.451896  	108.437677 
653.882711  	25.507194 
655.313527  	85.855733 
656.744342  	126.761277 
658.175158  	23.895499 
659.605973  	79.550540 
661.036789  	40.783009 
662.467605  	55.686021 
663.898420  	127.383450 
665.329236  	144.405535 
666.760051  	100.410238 
668.190867  	124.051822 
669.621682  	26.217239 
671.052498  	200.255036 
672.483313  	110.260719 
673.914129  	74.242332 
675.344945  	76.518313 
676.775760  	12.644959 
678.206576  	26.995983 
679.637391  	82.202306 
681.068207  	52.434446 
682.499022  	130.039747 
683.929838  	114.272319 
685.360654  	76.369827 
686.791469  	336.859825 
688.222285  	184.296730 
689.653100  	83.132854 
691.083916  	223.358544 
692.514731  	43.494487 
693.945547  	61.386755 
695.376362  	38.368576 
696.807178  	45.958182 
698.237994  	97.342998 
699.668809  	58.248556 
701.099625  	34.134903 
702.530440  	122.694118 
703.961256  	73.712951 
705.392071  	155.558168 
706.822887  	163.385635 
708.253702  	64.848955 
709.684518  	246.143211 
711.115334  	110.585507 
712.546149  	39.945221 
713.976965  	292.711534 
715.407780  	184.287371 
716.838596  	157.570053 
718.269411  	104.391079 
719.700227  	21.889878 
721.131043  	65.792119 
722.561858  	62.230481 
723.992674  	60.484901 
725.423489  	119.538819 
726.854305  	101.199015 
728.285120  	75.837812 
729.715936  	105.374126 
731.146751  	40.142018 
732.577567  	78.531264 
734.008383  	118.437523 
735.439198  	47.442513 
736.870014  	231.733169 
738.300829  	168.564015 
739.731645  	135.650169 
741.162460  	111.860650 
742.593276  	4.022709 
744.024092  	64.925264 
745.454907  	99.001004 
746.885723  	90.748261 
748.316538  	132.546325 
749.747354  	62.737727 
751.178169  	13.092463 
752.608985  	97.827170 
754.039800  	37.335834 
755.470616  	54.690813 
756.901432  	245.483703 
758.332247  	35.058930 
759.763063  	250.563240 
761.193878  	76.254897 
762.624694  	46.153226 
764.055509  	133.786152 
765.486325  	135.615837 
766.917140  	53.222221 
768.347956  	155.377164 
769.778772  	53.443513 
771.209587  	120.912468 
772.640403  	99.743436 
774.071218  	54.547470 
775.502034  	88.152096 
776.932849  	68.203179 
778.363665  	39.824432 
779.794481  	118.150673 
781.225296  	42.408138 
782.656112  	111.743478 
784.086927  	120.713099 
785.517743  	75.775190 
786.948558  	83.007799 
788.379374  	59.294973 
789.810189  	70.185583 
791.241005  	153.272527 
792.671821  	70.069646 
794.102636  	105.067548 
795.533452  	110.951362 
796.964267  	92.579186 
798.395083  	167.320470 
799.825898  	112.751866 
801.256714  	51.236753 
802.687529  	96.518039 
804.118345  	54.671906 
805.549161  	73.342253 
806.979976  	92.836502 
808.410792  	56.026173 
809.841607  	82.828755 
811.272423  	102.615952 
812.703238  	72.457431 
814.134054  	187.362122 
815.564870  	121.718585 
816.995685  	52.210031 
818.426501  	99.749809 
819.857316  	42.899340 
821.288132  	69.676672 
822.718947  	88.561521 
824.149763  	55.245104 
825.580578  	82.209315 
827.011394  	60.273740 
828.442210  	53.430184 
829.873025  	88.407985 
831.303841  	64.874999 
832.734656  	80.212393 
834.165472  	90.955236 
835.596287  	88.189727 
837.027103  	94.716338 
838.457918  	94.456984 
839.888734  	95.110897 
841.319550  	98.994795 
842.750365  	94.479409 
844.181181  	94.093243 
845.611996  	96.103974 
847.042812  	94.870650 
848.473627  	95.952659 
849.904443  	95.607220 
851.335259  	95.029012 
852.766074  	96.362816 
854.196890  	94.822373 
855.627705  	95.125215 
857.058521  	96.392269 
858.489336  	95.206754 
859.920152  	96.087118 
861.350967  	96.584711 
862.781783  	95.699644 
864.212599  	96.874901 
865.643414  	97.309435 
867.074230  	97.214521 
868.505045  	97.246227 
869.935861  	96.334663 
871.366676  	96.691983 
872.797492  	97.118143 
874.228308  	96.952373 
875.659123  	97.545540 
877.089939  	97.227397 
878.520754  	97.061675 
879.951570  	97.565886 
881.382385  	97.274505 
882.813201  	97.924722 
884.244016  	98.548286 
885.674832  	98.140546 
887.105648  	98.518574 
888.536463  	98.639463 
889.967279  	98.420496 
891.398094  	98.593476 
892.828910  	98.276504 
894.259725  	98.109012 
895.690541  	98.044493 
897.121356  	97.875905 
898.552172  	98.283976 
899.982988  	98.343007 
901.413803  	98.252894 
902.844619  	98.472794 
904.275434  	98.220551 
905.706250  	98.353255 
907.137065  	98.755052 
908.567881  	98.653781 
909.998697  	98.845288 
911.429512  	98.824770 
912.860328  	98.630097 
914.291143  	98.931454 
915.721959  	98.677672 
917.152774  	98.299227 
918.583590  	98.445735 
920.014405  	98.292721 
921.445221  	98.111583 
922.876037  	97.898397 
924.306852  	97.547961 
925.737668  	97.547227 
927.168483  	97.312719 
928.599299  	97.049871 
930.030114  	97.234807 
931.460930  	97.262486 
932.891745  	97.398244 
934.322561  	97.646867 
935.753377  	97.620426 
937.184192  	97.694592 
938.615008  	97.683190 
940.045823  	97.610185 
941.476639  	97.662242 
942.907454  	97.415314 
944.338270  	97.159598 
945.769086  	96.956893 
947.199901  	96.516006 
948.630717  	96.168365 
950.061532  	95.736227 
951.492348  	95.324260 
952.923163  	95.261370 
954.353979  	95.178076 
955.784794  	95.300862 
957.215610  	95.555238 
958.646426  	95.588558 
960.077241  	95.833643 
961.508057  	96.017648 
962.938872  	96.016273 
964.369688  	96.183361 
965.800503  	96.063246 
967.231319  	95.804177 
968.662135  	95.593393 
970.092950  	95.086684 
971.523766  	94.715711 
972.954581  	94.203437 
974.385397  	93.137145 
975.816212  	92.033559 
977.247028  	90.596515 
978.677843  	88.754477 
980.108659  	86.571215 
981.539475  	83.655149 
982.970290  	80.502383 
984.401106  	76.709895 
985.831921  	72.171864 
987.262737  	67.120897 
988.693552  	60.907792 
990.124368  	54.550506 
991.555183  	46.915502 
992.985999  	39.100733 
994.416815  	32.744686 
995.847630  	25.261459 
997.278446  	21.212829 
998.709261  	18.983015 
1000.140077  	16.506644 
1001.570892  	17.336377 
1003.001708  	16.477253 
1004.432524  	15.942925 
1005.863339  	17.493699 
1007.294155  	16.246273 
1008.724970  	16.628259 
1010.155786  	17.185157 
1011.586601  	15.872894 
1013.017417  	17.182705 
1014.448232  	16.664326 
1015.879048  	15.879860 
1017.309864  	17.326707 
1018.740679  	16.139276 
1020.171495  	16.563713 
1021.602310  	17.572713 
1023.033126  	16.105295 
1024.463941  	17.175944 
1025.894757  	16.831711 
1027.325572  	15.660057 
1028.756388  	17.300133 
1030.187204  	16.283453 
1031.618019  	16.422680 
1033.048835  	17.878204 
1034.479650  	16.345526 
1035.910466  	17.223331 
1037.341281  	17.483362 
1038.772097  	16.324256 
1040.202913  	17.992886 
1041.633728  	16.995264 
1043.064544  	16.523607 
1044.495359  	17.969150 
1045.926175  	16.340269 
1047.356990  	17.257290 
1048.787806  	18.007779 
1050.218621  	16.380041 
1051.649437  	18.006297 
1053.080253  	17.409934 
1054.511068  	16.515665 
1055.941884  	18.252066 
1057.372699  	16.687560 
1058.803515  	17.009426 
1060.234330  	18.098716 
1061.665146  	16.476278 
1063.095962  	17.990895 
1064.526777  	17.670015 
1065.957593  	16.476086 
1067.388408  	18.324495 
1068.819224  	16.886010 
1070.250039  	17.154622 
1071.680855  	19.092073 
1073.111670  	19.277678 
1074.542486  	25.566371 
1075.973302  	33.827984 
1077.404117  	42.903660 
1078.834933  	53.427560 
1080.265748  	61.557025 
1081.696564  	68.147397 
1083.127379  	73.566782 
1084.558195  	77.598972 
1085.989010  	80.844884 
1087.419826  	83.413208 
1088.850642  	85.385240 
1090.281457  	87.042694 
1091.712273  	88.420347 
1093.143088  	89.502925 
1094.573904  	90.446676 
1096.004719  	91.244116 
1097.435535  	91.852571 
1098.866351  	92.416335 
1100.297166  	92.913141 
1101.727982  	93.332203 
1103.158797  	93.733962 
1104.589613  	94.041169 
1106.020428  	94.361651 
1107.451244  	94.735543 
1108.882059  	95.026697 
1110.312875  	95.349937 
1111.743691  	95.703196 
1113.174506  	95.996157 
1114.605322  	96.334147 
1116.036137  	96.625582 
1117.466953  	96.837379 
1118.897768  	97.086923 
1120.328584  	97.262495 
1121.759399  	97.386675 
1123.190215  	97.569307 
1124.621031  	97.754481 
1126.051846  	97.987670 
1127.482662  	98.284706 
1128.913477  	98.581886 
1130.344293  	98.874617 
1131.775108  	99.106074 
1133.205924  	99.288189 
1134.636740  	99.462317 
1136.067555  	99.602319 
1137.498371  	99.746065 
1138.929186  	99.862176 
1140.360002  	99.916598 
1141.790817  	99.957725 
1143.221633  	99.968502 
1144.652448  	99.979552 
1146.083264  	99.948544 
1147.514080  	99.747300 
1148.944895  	99.374790 
1150.375711  	98.743583 
1151.806526  	97.957934 
1153.237342  	97.542238 
1154.668157  	97.788374 
1156.098973  	98.416596 
1157.529789  	98.890095 
1158.960604  	99.020725 
1160.391420  	99.061876 
1161.822235  	99.102498 
1163.253051  	99.126773 
1164.683866  	99.259499 
1166.114682  	99.433329 
1167.545497  	99.592589 
1168.976313  	99.786036 
1170.407129  	99.918052 
1171.837944  	100.018936 
1173.268760  	100.136100 
1174.699575  	100.194472 
1176.130391  	100.273706 
1177.561206  	100.364140 
1178.992022  	100.392838 
1180.422837  	100.444563 
1181.853653  	100.481882 
1183.284469  	100.477586 
1184.715284  	100.490408 
1186.146100  	100.465322 
1187.576915  	100.435304 
1189.007731  	100.437672 
1190.438546  	100.402484 
1191.869362  	100.350036 
1193.300178  	100.290910 
1194.730993  	100.217191 
1196.161809  	100.154603 
1197.592624  	100.080775 
1199.023440  	100.014170 
1200.454255  	99.965659 
1201.885071  	99.905065 
1203.315886  	99.845193 
1204.746702  	99.774192 
1206.177518  	99.691866 
1207.608333  	99.602177 
1209.039149  	99.483556 
1210.469964  	99.364559 
1211.900780  	99.231210 
1213.331595  	99.093697 
1214.762411  	98.999931 
1216.193226  	98.881057 
1217.624042  	98.753435 
1219.054858  	98.670520 
1220.485673  	98.579747 
1221.916489  	98.527693 
1223.347304  	98.514717 
1224.778120  	98.502035 
1226.208935  	98.579967 
1227.639751  	98.703152 
1229.070567  	98.801460 
1230.501382  	98.928322 
1231.932198  	99.033497 
1233.363013  	99.098545 
1234.793829  	99.151475 
1236.224644  	99.139870 
1237.655460  	99.091967 
1239.086275  	99.011502 
1240.517091  	98.866399 
1241.947907  	98.702296 
1243.378722  	98.514749 
1244.809538  	98.390933 
1246.240353  	98.488687 
1247.671169  	98.784597 
1249.101984  	99.170832 
1250.532800  	99.533598 
1251.963616  	99.774509 
1253.394431  	99.919431 
1254.825247  	99.996149 
1256.256062  	100.017883 
1257.686878  	100.019776 
1259.117693  	99.960638 
1260.548509  	99.859534 
1261.979324  	99.760386 
1263.410140  	99.602551 
1264.840956  	99.369347 
1266.271771  	99.089542 
1267.702587  	98.786679 
1269.133402  	98.468316 
1270.564218  	98.172734 
1271.995033  	98.048094 
1273.425849  	98.146230 
1274.856664  	98.398622 
1276.287480  	98.739040 
1277.718296  	99.037120 
1279.149111  	99.236799 
1280.579927  	99.384043 
1282.010742  	99.431093 
1283.441558  	99.402729 
1284.872373  	99.340286 
1286.303189  	99.152129 
1287.734005  	98.917924 
1289.164820  	98.753231 
1290.595636  	98.575166 
1292.026451  	98.377221 
1293.457267  	98.203327 
1294.888082  	98.038658 
1296.318898  	97.957582 
1297.749713  	98.015923 
1299.180529  	98.151637 
1300.611345  	98.330114 
1302.042160  	98.512995 
1303.472976  	98.662549 
1304.903791  	98.773476 
1306.334607  	98.774067 
1307.765422  	98.649127 
1309.196238  	98.454447 
1310.627053  	98.108772 
1312.057869  	97.580760 
1313.488685  	97.159192 
1314.919500  	97.077348 
1316.350316  	97.292651 
1317.781131  	97.735466 
1319.211947  	98.307363 
1320.642762  	98.886231 
1322.073578  	99.319464 
1323.504394  	99.567845 
1324.935209  	99.750702 
1326.366025  	99.910326 
1327.796840  	100.017450 
1329.227656  	100.108332 
1330.658471  	100.184897 
1332.089287  	100.255730 
1333.520102  	100.324930 
1334.950918  	100.290536 
1336.381734  	100.138207 
1337.812549  	99.886252 
1339.243365  	99.624776 
1340.674180  	99.804309 
1342.104996  	100.254712 
1343.535811  	100.391021 
1344.966627  	100.327131 
1346.397443  	100.347698 
1347.828258  	100.305639 
1349.259074  	100.228725 
1350.689889  	100.233462 
1352.120705  	100.203479 
1353.551520  	100.108602 
1354.982336  	100.012430 
1356.413151  	99.960233 
1357.843967  	99.929127 
1359.274783  	99.840499 
1360.705598  	99.583702 
1362.136414  	99.134116 
1363.567229  	99.050454 
1364.998045  	99.457548 
1366.428860  	99.619854 
1367.859676  	99.382441 
1369.290491  	99.274436 
1370.721307  	99.428053 
1372.152123  	99.426247 
1373.582938  	99.082656 
1375.013754  	99.012157 
1376.444569  	99.334700 
1377.875385  	99.391708 
1379.306200  	99.381978 
1380.737016  	99.580036 
1382.167832  	99.650351 
1383.598647  	99.759906 
1385.029463  	99.832384 
1386.460278  	99.449849 
1387.891094  	99.311994 
1389.321909  	99.643949 
1390.752725  	99.845797 
1392.183540  	99.944858 
1393.614356  	99.687935 
1395.045172  	99.200891 
1396.475987  	99.367088 
1397.906803  	99.499883 
1399.337618  	99.335008 
1400.768434  	99.645531 
1402.199249  	99.936239 
1403.630065  	99.721798 
1405.060880  	99.484081 
1406.491696  	99.588086 
1407.922512  	99.694222 
1409.353327  	99.563834 
1410.784143  	99.282294 
1412.214958  	99.100657 
1413.645774  	98.842827 
1415.076589  	98.200840 
1416.507405  	97.372090 
1417.938221  	96.272518 
1419.369036  	94.752111 
1420.799852  	94.198549 
1422.230667  	94.081548 
1423.661483  	93.624707 
1425.092298  	93.683848 
1426.523114  	94.320476 
1427.953929  	94.767522 
1429.384745  	95.207591 
1430.815561  	95.726980 
1432.246376  	96.047056 
1433.677192  	96.354605 
1435.108007  	96.334414 
1436.538823  	95.377929 
1437.969638  	94.965793 
1439.400454  	94.784748 
1440.831270  	93.774377 
1442.262085  	92.432305 
1443.692901  	91.156099 
1445.123716  	90.170399 
1446.554532  	89.767206 
1447.985347  	90.041482 
1449.416163  	91.209818 
1450.846978  	92.423666 
1452.277794  	93.229169 
1453.708610  	93.841123 
1455.139425  	94.025542 
1456.570241  	92.762891 
1458.001056  	91.512383 
1459.431872  	91.069938 
1460.862687  	90.397202 
1462.293503  	89.691600 
1463.724318  	88.798527 
1465.155134  	88.385563 
1466.585950  	88.926161 
1468.016765  	89.897436 
1469.447581  	91.176409 
1470.878396  	92.191755 
1472.309212  	93.304682 
1473.740027  	94.993239 
1475.170843  	96.175617 
1476.601659  	97.075182 
1478.032474  	97.949231 
1479.463290  	98.521530 
1480.894105  	98.624309 
1482.324921  	98.713078 
1483.755736  	99.061535 
1485.186552  	99.134273 
1486.617367  	98.918637 
1488.048183  	98.747655 
1489.478999  	98.371301 
1490.909814  	98.436666 
1492.340630  	99.177634 
1493.771445  	99.627972 
1495.202261  	99.505332 
1496.633076  	99.190018 
1498.063892  	99.235511 
1499.494707  	99.374208 
1500.925523  	99.424745 
1502.356339  	99.693511 
1503.787154  	100.184032 
1505.217970  	100.050588 
1506.648785  	98.035607 
1508.079601  	97.663779 
